Time(s),Position(V)
0.358000,1.888999
3.373000,1.881221
6.373000,1.871101
9.373000,1.853196
12.373000,1.842443
15.373000,1.832235
18.373000,1.818120
21.373000,1.805964
24.371000,1.790296
27.371000,1.774842
30.372000,1.768468
33.372000,1.761173
36.372000,1.740851
39.370000,1.729864
42.370000,1.710888
45.371000,1.684906
48.370000,1.677505
51.370000,1.666487
54.370000,1.644547
57.370000,1.621968
60.370000,1.606405
63.368000,1.591301
66.368000,1.580355
69.369000,1.558011
72.369000,1.537437
75.369000,1.527650
78.367000,1.523917
81.367000,1.491201
84.367000,1.486078
87.368000,1.470695
90.368000,1.457121
93.368000,1.438186
96.366000,1.437663
99.366000,1.414397
102.366000,1.395251
105.366000,1.389574
108.367000,1.374980
111.365000,1.361114
114.365000,1.351690
117.365000,1.329281
120.365000,1.322934
123.365000,1.316945
126.366000,1.307280
129.364000,1.286023
132.364000,1.286982
135.364000,1.273268
138.364000,1.258297
141.364000,1.259891
144.362000,1.249105
147.363000,1.244417
150.362000,1.232155
153.362000,1.226363
156.362000,1.220580
159.362000,1.217996
162.362000,1.207961
165.363000,1.206720
168.361000,1.200074
171.361000,1.197134
174.361000,1.196682
177.361000,1.190617
180.361000,1.189247
183.359000,1.189346
186.360000,1.187218
189.360000,1.186235
192.360000,1.187048
195.360000,1.185844
198.358000,1.186936
201.358000,1.189900
204.359000,1.192412
207.359000,1.192823
210.359000,1.198351
213.359000,1.200044
216.357000,1.204341
219.357000,1.207859
222.357000,1.213693
225.358000,1.216606
228.358000,1.223677
231.356000,1.231999
234.356000,1.235303
237.356000,1.243996
240.356000,1.254813
243.357000,1.259093
246.355000,1.272656
249.355000,1.276035
252.355000,1.291551
255.355000,1.302599
258.355000,1.306022
261.355000,1.322054
264.354000,1.328023
267.354000,1.343539
270.354000,1.351894
273.354000,1.361131
276.354000,1.378363
279.352000,1.383792
282.353000,1.408298
285.353000,1.415808
288.353000,1.439131
291.353000,1.447552
294.351000,1.447902
297.351000,1.472518
300.351000,1.474163
303.352000,1.487968
306.352000,1.507913
309.352000,1.519423
312.350000,1.534092
315.350000,1.542016
318.350000,1.566764
321.351000,1.581365
324.351000,1.589289
327.349000,1.605080
330.349000,1.612120
333.349000,1.644738
336.349000,1.653148
339.349000,1.663435
342.348000,1.679626
345.348000,1.694074
348.348000,1.709256
351.348000,1.729105
354.348000,1.731465
357.348000,1.752358
360.347000,1.770521
363.347000,1.774811
366.347000,1.800460
369.347000,1.799145
372.347000,1.821714
375.345000,1.825555
378.345000,1.840676
381.346000,1.864384
384.346000,1.879661
387.346000,1.894503
390.344000,1.901944
393.345000,1.919417
396.345000,1.931945
399.344000,1.948901
402.344000,1.962512
405.344000,1.969974
408.343000,1.982494
411.343000,1.989219
414.343000,2.005757
417.343000,2.002096
420.344000,2.017890
423.342000,2.040037
426.342000,2.053451
429.342000,2.049719
432.342000,2.057048
435.342000,2.078308
438.341000,2.078526
441.341000,2.093416
444.341000,2.092987
447.341000,2.106038
450.341000,2.119629
453.341000,2.128083
456.339000,2.126978
459.340000,2.132271
462.340000,2.142126
465.340000,2.156115
468.340000,2.146767
471.338000,2.152148
474.338000,2.161891
477.339000,2.159906
480.339000,2.169064
483.339000,2.179524
486.337000,2.179684
489.337000,2.183212
492.337000,2.182832
495.337000,2.182468
498.338000,2.195644
501.338000,2.195063
504.336000,2.183957
507.337000,2.204160
510.336000,2.187802
513.336000,2.187625
516.337000,2.176376
519.335000,2.188913
522.335000,2.194118
525.336000,2.190854
528.334000,2.186071
531.334000,2.182420
534.334000,2.185857
537.335000,2.165855
540.335000,2.159967
543.333000,2.158029
546.333000,2.162054
549.333000,2.155208
552.333000,2.156265
555.334000,2.139771
558.332000,2.137391
561.332000,2.125472
564.332000,2.123708
567.332000,2.128977
570.332000,2.117531
573.332000,2.104729
576.331000,2.102016
579.332000,2.086630
582.330000,2.087738
585.330000,2.073345
588.330000,2.064602
591.330000,2.055862
594.331000,2.051894
597.329000,2.039684
600.329000,2.030743
603.329000,2.020670
606.329000,2.013219
609.329000,2.009724
612.329000,1.992496
615.328000,1.985095
618.328000,1.972252
621.328000,1.968880
624.328000,1.955377
627.328000,1.951801
630.326000,1.937516
633.327000,1.922882
636.327000,1.910949
639.327000,1.900884
642.327000,1.891532
645.327000,1.877417
648.325000,1.879868
651.325000,1.860114
654.326000,1.846679
657.326000,1.842036
660.325000,1.830494
663.325000,1.815761
666.325000,1.803972
669.325000,1.797533
672.324000,1.797826
675.324000,1.788008
678.324000,1.766398
681.324000,1.760737
684.323000,1.749206
687.323000,1.745719
690.322000,1.729146
693.323000,1.725315
696.323000,1.702355
699.323000,1.685140
702.321000,1.672929
705.322000,1.663282
708.322000,1.658318
711.321000,1.653233
714.321000,1.641518
717.321000,1.629121
720.321000,1.618861
723.321000,1.614091
726.319000,1.597832
729.320000,1.596788
732.321000,1.583785
735.319000,1.581314
738.319000,1.578482
741.319000,1.563987
744.319000,1.559557
747.319000,1.553812
750.318000,1.541465
753.318000,1.537270
756.319000,1.526477
759.317000,1.516857
762.317000,1.515327
765.317000,1.504605
768.317000,1.504489
771.318000,1.494736
774.316000,1.486856
777.316000,1.482111
780.316000,1.477793
783.316000,1.471579
786.315000,1.474302
789.316000,1.462224
792.316000,1.464117
795.316000,1.454545
798.314000,1.452376
801.314000,1.444883
804.314000,1.441137
807.314000,1.436762
810.315000,1.435188
813.313000,1.432499
816.313000,1.434889
819.313000,1.428654
822.313000,1.429813
825.313000,1.421951
828.313000,1.424065
831.312000,1.421937
834.312000,1.437449
837.312000,1.420156
840.312000,1.421804
843.311000,1.420836
846.311000,1.428841
849.312000,1.429202
852.312000,1.429926
855.310000,1.423473
858.310000,1.432751
861.310000,1.431102
864.310000,1.430847
867.310000,1.430704
870.309000,1.430470
873.309000,1.438594
876.309000,1.438101
879.309000,1.441950
882.309000,1.447334
885.307000,1.450074
888.308000,1.467626
891.308000,1.469220
894.308000,1.463455
897.308000,1.471192
900.308000,1.474969
903.306000,1.475859
906.306000,1.483654
909.307000,1.491327
912.307000,1.497140
915.307000,1.509857
918.305000,1.504296
921.305000,1.510221
924.305000,1.521426
927.306000,1.524839
930.306000,1.545208
933.304000,1.554111
936.304000,1.548132
939.304000,1.569215
942.304000,1.566220
945.304000,1.575973
948.305000,1.581314
951.303000,1.597730
954.303000,1.609740
957.303000,1.610219
960.303000,1.624344
963.303000,1.629984
966.302000,1.640930
969.302000,1.656252
972.302000,1.657486
975.302000,1.672025
978.302000,1.677702
981.300000,1.686554
984.301000,1.692860
987.301000,1.709283
990.301000,1.723326
993.301000,1.733008
996.301000,1.733807
999.299000,1.752609
1002.299000,1.751603
1005.300000,1.766724
1008.300000,1.765575
1011.300000,1.781025
1014.298000,1.793185
1017.298000,1.808462
1020.298000,1.807443
1023.298000,1.812783
1026.299000,1.825320
1029.297000,1.842576
1032.297000,1.847842
1035.297000,1.864951
1038.297000,1.863391
1041.297000,1.868252
1044.298000,1.889077
1047.296000,1.894788
1050.296000,1.897746
1053.296000,1.909375
1056.296000,1.930265
1059.296000,1.924979
1062.294000,1.934919
1065.295000,1.955533
1068.295000,1.954548
1071.295000,1.968509
1074.295000,1.973646
1077.293000,1.980108
1080.293000,1.989912
1083.294000,1.994614
1086.294000,1.998931
1089.294000,1.999788
1092.294000,2.015758
1095.292000,2.030407
1098.292000,2.039333
1101.292000,2.034414
1104.293000,2.045048
1107.293000,2.049104
1110.291000,2.052197
1113.291000,2.068049
1116.291000,2.060454
1119.291000,2.085420
1122.292000,2.072944
1125.290000,2.093861
1128.290000,2.084947
1131.290000,2.080147
1134.290000,2.095064
1137.290000,2.105728
1140.290000,2.099161
1143.289000,2.115301
1146.289000,2.098406
1149.289000,2.109845
1152.289000,2.129531
1155.289000,2.116206
1158.287000,2.121685
1161.288000,2.111946
1164.288000,2.114740
1167.288000,2.122732
1170.288000,2.131160
1173.287000,2.133652
1176.287000,2.122882
1179.287000,2.120013
1182.286000,2.124684
1185.287000,2.120156
1188.287000,2.114887
1191.285000,2.129055
1194.285000,2.111446
1197.285000,2.117412
1200.286000,2.123939
1203.286000,2.113364
1206.284000,2.108832
1209.284000,2.109961
1212.284000,2.099052
1215.284000,2.112874
1218.284000,2.088276
1221.283000,2.083448
1224.283000,2.077210
1227.283000,2.073685
1230.283000,2.070602
1233.283000,2.064568
1236.283000,2.059968
1239.282000,2.052245
1242.282000,2.049083
1245.282000,2.051374
1248.282000,2.037341
1251.282000,2.029414
1254.280000,2.024930
1257.280000,2.031012
1260.281000,2.023893
1263.281000,2.006593
1266.281000,1.999036
1269.279000,1.991483
1272.279000,1.982311
1275.279000,1.982532
1278.280000,1.983902
1281.279000,1.969566
1284.279000,1.956070
1287.279000,1.953422
1290.279000,1.945746
1293.277000,1.933179
1296.277000,1.929510
1299.278000,1.925081
1302.278000,1.911558
1305.278000,1.916671
1308.278000,1.901876
1311.276000,1.890719
1314.276000,1.887701
1317.277000,1.874001
1320.277000,1.884077
1323.277000,1.871924
1326.275000,1.855854
1329.275000,1.852557
1332.275000,1.846621
1335.275000,1.832225
1338.275000,1.828778
1341.275000,1.828057
1344.275000,1.812198
1347.275000,1.805267
1350.273000,1.802214
1353.273000,1.805128
1356.275000,1.797584
1359.273000,1.785492
1362.273000,1.781991
1365.273000,1.773611
1368.273000,1.757256
1371.273000,1.758001
1374.271000,1.759398
1377.272000,1.746742
1380.272000,1.734987
1383.272000,1.732009
1386.272000,1.730479
1389.270000,1.711099
1392.270000,1.715807
1395.271000,1.713274
1398.271000,1.703395
1401.271000,1.699738
1404.271000,1.704510
1407.269000,1.683087
1410.269000,1.682421
1413.269000,1.678338
1416.270000,1.677964
1419.270000,1.669540
1422.268000,1.670924
1425.268000,1.662258
1428.269000,1.652893
1431.267000,1.650156
1434.268000,1.652529
1437.268000,1.649731
1440.268000,1.647525
1443.268000,1.642916
1446.266000,1.633254
1449.266000,1.633254
1452.266000,1.631113
1455.267000,1.631215
1458.267000,1.625320
1461.265000,1.623508
1464.265000,1.625697
1467.265000,1.617110
1470.265000,1.620601
1473.265000,1.614214
1476.265000,1.614751
1479.265000,1.611209
1482.265000,1.613735
1485.263000,1.610002
1488.263000,1.617362
1491.263000,1.604729
1494.264000,1.606976
1497.264000,1.606096
1500.262000,1.605443
1503.262000,1.604899
1506.262000,1.605906
1509.262000,1.605232
1512.263000,1.605861
1515.263000,1.608299
1518.261000,1.611335
1521.261000,1.606191
1524.261000,1.611413
1527.261000,1.614486
1530.261000,1.613656
1533.260000,1.615642
1536.260000,1.622495
1539.260000,1.627203
1542.260000,1.626095
1545.260000,1.636793
1548.259000,1.620584
1551.260000,1.628029
1554.260000,1.627696
1557.259000,1.636215
1560.259000,1.643711
1563.259000,1.639788
1566.257000,1.646866
1569.257000,1.651207
1572.258000,1.652271
1575.258000,1.653039
1578.258000,1.656044
1581.256000,1.658227
1584.256000,1.669159
1587.256000,1.669860
1590.257000,1.675340
1593.257000,1.686741
1596.255000,1.675173
1599.255000,1.683519
1602.255000,1.699564
1605.255000,1.696984
1608.255000,1.706213
1611.256000,1.698099
1614.254000,1.709888
1617.254000,1.725706
1620.254000,1.723265
1623.254000,1.734742
1626.254000,1.734987
1629.253000,1.735269
1632.253000,1.741697
1635.253000,1.742292
1638.253000,1.754129
1641.253000,1.756930
1644.251000,1.773730
1647.251000,1.769233
1650.252000,1.770059
1653.252000,1.780740
1656.252000,1.778636
1659.252000,1.789385
1662.250000,1.791727
1665.250000,1.800103
1668.251000,1.805838
1671.251000,1.810907
1674.251000,1.815119
1677.249000,1.825501
1680.249000,1.825803
1683.249000,1.827030
1686.249000,1.839146
1689.250000,1.838874
1692.250000,1.845418
1695.248000,1.848440
1698.248000,1.856283
1701.248000,1.867328
1704.248000,1.863112
1707.249000,1.869830
1710.247000,1.884644
1713.247000,1.874052
1716.247000,1.886082
1719.247000,1.884233
1722.247000,1.894982
1725.246000,1.899609
1728.247000,1.900734
1731.247000,1.912262
1734.245000,1.908090
1737.245000,1.926767
1740.245000,1.928327
1743.244000,1.925978
1746.245000,1.923534
1749.245000,1.929874
1752.245000,1.939372
1755.245000,1.928814
1758.243000,1.958984
1761.243000,1.947912
1764.243000,1.960915
1767.244000,1.961989
1770.244000,1.951835
1773.242000,1.968822
1776.242000,1.969974
1779.242000,1.982328
1782.242000,1.974098
1785.243000,1.982389
1788.243000,1.978028
1791.241000,1.977321
1794.241000,1.991993
1797.241000,1.993791
1800.241000,1.989950
1803.241000,1.991959
1806.240000,1.990052
1809.240000,1.997241
1812.240000,1.999261
1815.240000,2.006777
1818.240000,1.994634
1821.238000,2.017298
1824.239000,2.010285
1827.239000,2.006444
1830.239000,2.027398
1833.239000,2.017495
1836.237000,2.012546
1839.237000,2.013460
1842.237000,2.010166
1845.238000,2.018066
1848.238000,2.024056
1851.238000,2.014419
1854.236000,2.016136
1857.236000,2.017964
1860.236000,2.020531
1863.237000,2.009136
1866.237000,2.020079
1869.235000,2.017210
1872.235000,2.011023
1875.235000,2.012083
1878.235000,2.017801
1881.235000,1.995392
1884.234000,1.993434
1887.234000,2.000257
1890.234000,1.992550
1893.234000,2.012787
1896.234000,1.991544
1899.234000,1.991007
1902.233000,1.996840
1905.233000,1.995436
1908.233000,2.003857
1911.233000,1.990565
1914.233000,2.001725
1917.231000,1.974482
1920.231000,1.987699
1923.232000,1.983960
1926.232000,1.970059
1929.232000,1.965436
1932.230000,1.971018
1935.230000,1.967754
1938.230000,1.964331
1941.231000,1.967938
1944.231000,1.960248
1947.231000,1.947732
1950.229000,1.946103
1953.229000,1.933665
1956.229000,1.947324
1959.229000,1.932611
1962.230000,1.937081
1965.228000,1.920393
1968.229000,1.924704
1971.229000,1.913268
1974.227000,1.916001
1977.227000,1.925084
1980.228000,1.919897
1983.228000,1.918792
1986.228000,1.899130
1989.226000,1.896318
1992.226000,1.902781
1995.226000,1.887034
1998.226000,1.888261
2001.227000,1.878692
2004.225000,1.876234
2007.225000,1.882306
2010.225000,1.878590
2013.225000,1.876452
2016.225000,1.876129
2019.226000,1.857207
2022.224000,1.849300
2025.224000,1.847978
2028.224000,1.857374
2031.224000,1.853040
2034.224000,1.850548
2037.222000,1.843239
2040.223000,1.850646
2043.223000,1.835481
2046.223000,1.846247
2049.223000,1.832456
2052.221000,1.817270
2055.221000,1.812443
2058.222000,1.807636
2061.222000,1.814847
2064.222000,1.810475
2067.222000,1.817423
2070.220000,1.804937
2073.220000,1.800011
2076.220000,1.802558
2079.221000,1.784272
2082.221000,1.784962
2085.219000,1.793763
2088.219000,1.793906
2091.219000,1.779914
2094.219000,1.778163
2097.219000,1.782300
2100.218000,1.777609
2103.218000,1.765181
2106.218000,1.757049
2109.218000,1.756821
2112.218000,1.763807
2115.218000,1.760221
2118.217000,1.768155
2121.217000,1.767271
2124.217000,1.765544
2127.217000,1.757885
2130.216000,1.754448
2133.216000,1.765826
2136.216000,1.749754
2139.215000,1.753316
2142.215000,1.753673
2145.215000,1.744488
2148.215000,1.748166
2151.215000,1.741826
2154.215000,1.748469
2157.215000,1.745039
2160.215000,1.744060
2163.213000,1.738760
2166.213000,1.743339
2169.213000,1.732726
2172.213000,1.738090
2175.213000,1.740548
2178.214000,1.726077
2181.212000,1.734670
2184.212000,1.732199
2187.212000,1.741717
2190.212000,1.730088
2193.212000,1.730523
2196.211000,1.729836
2199.211000,1.730989
2202.211000,1.733501
2205.210000,1.734392
2208.210000,1.733739
2211.210000,1.729823
2214.210000,1.729945
2217.211000,1.731757
2220.209000,1.743614
2223.209000,1.727365
2226.209000,1.736588
2229.209000,1.733467
2232.209000,1.735000
2235.210000,1.736088
2238.208000,1.735048
2241.208000,1.736221
2244.208000,1.734225
2247.208000,1.749053
2250.208000,1.750753
2253.206000,1.744940
2256.207000,1.743553
2259.207000,1.743822
2262.207000,1.752395
2265.207000,1.755900
2268.205000,1.751018
2271.206000,1.746358
2274.207000,1.757889
2277.205000,1.749917
2280.205000,1.761526
2283.205000,1.770052
2286.205000,1.767907
2289.205000,1.771211
2292.203000,1.768039
2295.205000,1.764830
2298.205000,1.785530
2301.203000,1.776222
2304.203000,1.784731
2307.203000,1.788307
2310.203000,1.791968
2313.204000,1.787787
2316.202000,1.797050
2319.202000,1.802272
2322.202000,1.796738
2325.202000,1.797197
2328.202000,1.817716
2331.201000,1.810013
2334.202000,1.821418
2337.202000,1.816098
2340.200000,1.828805
2343.200000,1.825769
2346.200000,1.832398
2349.199000,1.831875
2352.200000,1.836702
2355.200000,1.841580
2358.200000,1.841264
2361.200000,1.846105
2364.198000,1.851551
2367.198000,1.850854
2370.198000,1.857411
2373.199000,1.865628
2376.199000,1.866634
2379.199000,1.865896
2382.197000,1.872988
2385.197000,1.877492
2388.197000,1.887085
2391.198000,1.891450
2394.198000,1.891899
2397.196000,1.894010
2400.196000,1.901353
2403.196000,1.896339
2406.196000,1.905956
2409.196000,1.904198
2412.195000,1.920349
2415.195000,1.923969
2418.195000,1.924700
2421.195000,1.925791
2424.195000,1.933702
2427.194000,1.931581
2430.195000,1.928722
2433.195000,1.942252
2436.193000,1.949809
2439.193000,1.945549
2442.193000,1.956067
2445.193000,1.951097
2448.193000,1.958188
2451.193000,1.958311
2454.193000,1.977545
2457.193000,1.966850
2460.191000,1.967622
2463.191000,1.970168
2466.191000,1.976015
2469.192000,1.985265
2472.191000,1.979965
2475.191000,1.983936
2478.191000,1.986502
2481.191000,1.999958
2484.190000,1.988185
2487.190000,2.004652
2490.191000,1.990708
2493.190000,1.996048
2496.190000,2.004353
2499.188000,2.008456
2502.188000,2.003721
2505.188000,2.003578
2508.188000,2.018321
2511.188000,2.008596
2514.188000,2.008286
2517.188000,2.010054
2520.188000,2.013416
2523.186000,2.029441
2526.186000,2.009666
2529.187000,2.019494
2532.187000,2.014742
2535.187000,2.013423
2538.187000,2.013103
2541.185000,2.025093
2544.185000,2.022833
2547.186000,2.027299
2550.186000,2.017574
2553.186000,2.016017
2556.184000,2.013226
2559.184000,2.015048
2562.184000,2.013804
2565.184000,2.015214
2568.185000,2.029139
2571.183000,2.009422
2574.183000,2.020718
2577.183000,2.009428
2580.182000,2.012403
2583.182000,2.016523
2586.183000,2.003551
2589.183000,2.006729
2592.183000,2.013545
2595.181000,1.999403
2598.181000,1.998407
2601.181000,1.991394
2604.181000,1.990901
2607.182000,1.984340
2610.182000,1.975060
2613.181000,1.993815
2616.181000,1.974179
2619.179000,1.968682
2622.179000,1.969118
2625.180000,1.976032
2628.180000,1.974516
2631.180000,1.968543
2634.180000,1.960741
2637.178000,1.957828
2640.178000,1.942388
2643.178000,1.948126
2646.178000,1.941755
2649.178000,1.937591
2652.178000,1.937836
2655.178000,1.936010
2658.178000,1.932672
2661.176000,1.917728
2664.177000,1.913836
2667.177000,1.916970
2670.177000,1.925040
2673.177000,1.906081
2676.175000,1.904654
2679.175000,1.898001
2682.175000,1.896702
2685.176000,1.897528
2688.176000,1.888387
2691.176000,1.874895
2694.174000,1.875874
2697.174000,1.882632
2700.174000,1.879280
2703.175000,1.860702
2706.175000,1.864139
2709.173000,1.854274
2712.173000,1.852224
2715.173000,1.856357
2718.173000,1.853444
2721.173000,1.849691
2724.172000,1.851435
2727.172000,1.841556
2730.172000,1.836246
2733.172000,1.841043
2736.172000,1.837565
2739.170000,1.833547
2742.171000,1.831905
2745.171000,1.820915
2748.171000,1.814904
2751.171000,1.816540
2754.171000,1.813997
2757.169000,1.817383
2760.169000,1.815139
2763.170000,1.811559
2766.170000,1.812620
2769.170000,1.804084
2772.168000,1.799508
